Angstroms	Transmission
      7266.51     0.014406613
      7266.88     0.013517701
      7267.26     0.016427660
      7267.64     0.016653787
      7268.01     0.015354270
      7268.39     0.013801369
      7268.77     0.014732039
      7269.14     0.013214162
      7269.52     0.021656927
      7269.90     0.013911714
      7270.27     0.023719779
      7270.65     0.013668211
      7271.03     0.015041889
      7271.40     0.015871199
      7271.78     0.015129518
      7272.15     0.014856926
      7272.53     0.015047308
      7272.91     0.016100858
      7273.28     0.014584199
      7273.66     0.014787989
      7274.04     0.015554800
      7274.41     0.015904197
      7274.79     0.014628215
      7275.17     0.016045824
      7275.54     0.015777753
      7275.92     0.014342719
      7276.30     0.015132075
      7276.67     0.016598291
      7277.05     0.015615029
      7277.43     0.015848459
      7277.80     0.016154541
      7278.18     0.016247988
      7278.55     0.017307548
      7278.93     0.016713923
      7279.31     0.015568143
      7279.68     0.015578663
      7280.06     0.016366920
      7280.44     0.017333483
      7280.81     0.017378575
      7281.19     0.016778274
      7281.57     0.018353435
      7281.94     0.016694553
      7282.32     0.017526196
      7282.70     0.018134328
      7283.07     0.017805492
      7283.45     0.018873510
      7283.83     0.018979968
      7284.20     0.019653825
      7284.58     0.020532659
      7284.95     0.018749533
      7285.33     0.020276326
      7285.71     0.019955654
      7286.08     0.021606423
      7286.46     0.021175598
      7286.84     0.022789798
      7287.21     0.020325961
      7287.59     0.020666840
      7287.97     0.021234019
      7288.34     0.023630824
      7288.72     0.022140632
      7289.10     0.022004075
      7289.47     0.023294633
      7289.85     0.022549420
      7290.23     0.026220145
      7290.60     0.022874247
      7290.98     0.030297439
      7291.35     0.026572449
      7291.73     0.029689509
      7292.11     0.028163340
      7292.48     0.025523753
      7292.86     0.026463160
      7293.24     0.028042563
      7293.61     0.028633151
      7293.99     0.028121898
      7294.37     0.029135131
      7294.74     0.029512294
      7295.12     0.029974747
      7295.50     0.031494061
      7295.87     0.030969905
      7296.25     0.030895609
      7296.62     0.032512603
      7297.00     0.033567810
      7297.38     0.034060342
      7297.75     0.034712804
      7298.13     0.034461449
      7298.51     0.036984405
      7298.88     0.037494985
      7299.26     0.038426681
      7299.64     0.039411206
      7300.01     0.038027656
      7300.39     0.038615083
      7300.77     0.041663648
      7301.14     0.042984620
      7301.52     0.042884636
      7301.90     0.045075428
      7302.27     0.047205643
      7302.65     0.046588475
      7303.02     0.048066419
      7303.40     0.049238837
      7303.78     0.050665116
      7304.15     0.053894829
      7304.53     0.053778597
      7304.91     0.056424520
      7305.28     0.058482517
      7305.66     0.060587337
      7306.04     0.066194626
      7306.41     0.065462182
      7306.79     0.068331334
      7307.17     0.069693770
      7307.54     0.075490196
      7307.92     0.079753266
      7308.30     0.085381348
      7308.67     0.086324911
      7309.05     0.091339971
      7309.42      0.10031576
      7309.80      0.10616825
      7310.18      0.11190476
      7310.55      0.11690811
      7310.93      0.12709395
      7311.31      0.13471709
      7311.68      0.14423990
      7312.06      0.15485401
      7312.44      0.16756027
      7312.81      0.18206710
      7313.19      0.19255226
      7313.57      0.20636836
      7313.94      0.22428848
      7314.32      0.24375982
      7314.70      0.26408593
      7315.07      0.28453616
      7315.45      0.31038155
      7315.82      0.32890136
      7316.20      0.35518426
      7316.58      0.38701431
      7316.95      0.41113779
      7317.33      0.43565615
      7317.71      0.47105644
      7318.08      0.49291919
      7318.46      0.52376610
      7318.84      0.55245597
      7319.21      0.57664393
      7319.59      0.59585511
      7319.97      0.61814786
      7320.34      0.64814147
      7320.72      0.65284066
      7321.10      0.66667879
      7321.47      0.67475391
      7321.85      0.68586809
      7322.22      0.68710985
      7322.60      0.69095156
      7322.98      0.68747499
      7323.35      0.68606304
      7323.73      0.68799563
      7324.11      0.68304506
      7324.48      0.67482057
      7324.86      0.66773559
      7325.24      0.65923172
      7325.61      0.65303440
      7325.99      0.64214478
      7326.37      0.63171758
      7326.74      0.62522939
      7327.12      0.60833060
      7327.50      0.60489844
      7327.87      0.58825684
      7328.25      0.57753716
      7328.62      0.56325290
      7329.00      0.54799985
      7329.38      0.53630976
      7329.75      0.52186707
      7330.13      0.49886671
      7330.51      0.48401977
      7330.88      0.46896476
      7331.26      0.45136287
      7331.64      0.42950976
      7332.01      0.41223993
      7332.39      0.39300011
      7332.77      0.36842683
      7333.14      0.35542811
      7333.52      0.33374749
      7333.90      0.31568671
      7334.27      0.29853870
      7334.65      0.27912657
      7335.02      0.26693039
      7335.40      0.24502948
      7335.78      0.22921841
      7336.15      0.21612562
      7336.53      0.20099274
      7336.91      0.18721879
      7337.28      0.17774519
      7337.66      0.16479194
      7338.04      0.15152290
      7338.41      0.14138546
      7338.79      0.13363633
      7339.17      0.12804252
      7339.54      0.11580526
      7339.92      0.10900716
      7340.29      0.10308975
      7340.67     0.095355513
      7341.05     0.090319713
      7341.42     0.085162520
      7341.80     0.078508885
      7342.18     0.074596476
      7342.55     0.071599661
      7342.93     0.071357414
      7343.31     0.064034701
      7343.68     0.061672047
      7344.06     0.056312477
      7344.44     0.053591917
      7344.81     0.051928456
      7345.19     0.049378606
      7345.57     0.047960390
      7345.94     0.045833488
      7346.32     0.043116210
      7346.69     0.041800881
      7347.07     0.039968970
      7347.45     0.037027399
      7347.82     0.035387748
      7348.20     0.035546613
      7348.58     0.034840871
      7348.95     0.033318476
      7349.33     0.031423981
      7349.71     0.031594580
      7350.08     0.030144216
      7350.46     0.028921313
      7350.84     0.028855127
      7351.21     0.027561122
      7351.59     0.026849171
      7351.97     0.026846644
      7352.34     0.026242887
      7352.72     0.024163290
      7353.09     0.025392084
      7353.47     0.022506241
      7353.85     0.023568142
      7354.22     0.024470800
      7354.60     0.022636384
      7354.98     0.023287260
      7355.35     0.021008245
      7355.73     0.020321665
      7356.11     0.020154455
      7356.48     0.021037551
      7356.86     0.029980261
      7357.24     0.020431200
      7357.61     0.019840821
      7357.99     0.019363867
      7358.37     0.018394017
      7358.74     0.018695487
